File: Data/HXN_XANES/FeLibNov2021.nor
# XDI/1.0 Demeter/0.9.26
# Demeter.output_filetype: multicolumn normalized mu(E)
# Element.symbol: Fe
# Element.edge: K
# Column.1: energy eV
# Column.2: Magnetite
# Column.3: Maghemite
# Column.4: Goethite
# Column.5: HFO
# Column.6: FeIII_sulfate
# Column.7: Fe3P
# Column.8: LiFe(II)PO4
# Column.9: Fe(III)PO4
# Column.10: Pyrite
# Column.11: StainlessSteelNP
# Column.12: Hematite_NP
#------------------------
#  energy  Magnetite  Maghemite  Goethite  HFO  FeIII_sulfate  Fe3P  LiFe(II)PO4  Fe(III)PO4  Pyrite  StainlessSteelNP  Hematite_NP
  7090       0.0031977   0.00041358   0.00225507   0.00222623   0.00249765   0.00167546   0.00269333   0.00256914  -0.000709619  -0.00108026   0.00134888
  7091.41       0.00226781   0.000222527   0.00190583   0.00185218   0.0021492   0.00124542   0.00201778   0.00169672  -0.000838727  -0.000894337   0.00100934
  7092.82       0.0013785   4.48012e-05   0.00155672   0.00147825   0.00180087   0.00081554   0.00134248   0.000824605  -0.00064124  -0.000661011   0.000705916
  7094.23       0.000691314  -0.000578884   0.00120748   0.0011042   0.00145242   0.000385506   0.000666932  -4.7812e-05  -0.000443683  -0.000427605   0.000251357
  7095.63       0.000363431  -0.000475466   0.000858366   0.000730273   0.00110409  -9.55133e-06   0.000226744   8.66723e-05  -0.000246196  -0.00019428   0.000291535
  7097.04      -0.000174733   0.000376662   0.000509131   0.000356219   0.000755641  -0.000291311  -7.81076e-05   0.000316509  -4.86394e-05   3.91261e-05   1.73614e-05
  7098.45      -0.000536832   0.000360192   0.00015496   8.2518e-05   0.000407312  -0.000405524  -0.000260358   0.000311791   0.000148848   0.000272451   0.000107476
  7099.86       8.67313e-05   7.66371e-05   1.77207e-05  -7.32758e-05   9.95374e-05   0.000109341  -0.000476391  -0.000197767   0.000346405   0.000505858  -2.08215e-05
  7101.27      -0.00034156   0.00087353  -3.62962e-05  -0.00016022   9.0964e-06   0.00101165  -0.000558086  -0.000319943   0.000907522   0.00143457  -0.000442613
  7102.68      -0.000159882   0.00245035  -0.000145293  -8.67788e-05  -0.000105676   0.00263361  -0.000425898  -0.000140132   0.00200758   0.00272042  -9.15427e-06
  7104.08      -0.000202224   0.00271024   2.37333e-05   7.06212e-05  -1.36899e-05   0.00627717   0.000186232  -7.23479e-05   0.00310726   0.00426758   0.00035291
  7105.49       0.00124693   0.00449561   0.000430115   0.000407686   0.000254877   0.0130334   0.00182514   0.00102519   0.00420733   0.00677959  -8.7135e-05
  7106.9       0.00221084   0.00531243   0.000977122   0.00105539   0.000628335   0.0207287   0.00289941   0.00173975   0.00593201   0.0102772   0.00091974
  7108.31       0.00512304   0.00690591   0.00186268   0.00215212   0.00133979   0.0325245   0.00487293   0.00298801   0.00849528   0.0159002   0.00194834
  7109.72       0.0100723   0.00837846   0.00334024   0.00407352   0.00234615   0.0558168   0.00841683   0.00411542   0.0124966   0.0287489   0.00344298
  7111.13       0.0258269   0.0135314   0.00664898   0.00841395   0.00427055   0.129705       0.0170602   0.00670763   0.0261419   0.0730561   0.0061216
  7112.54       0.0692999   0.0286377   0.0216673   0.0270321   0.00974883   0.325049       0.0442582   0.0126626   0.07272   0.238166       0.0160898
  7113.94       0.124101       0.0747935   0.0444184   0.0559717   0.0344083   0.439811       0.0396394   0.0350624   0.123618       0.335581       0.0445299
  7115.35       0.113621       0.0748536   0.0474323   0.057054   0.0348437   0.484699       0.0405461   0.0425345   0.123       0.40649       0.0556242
  7116.76       0.132204       0.0705781   0.0480122   0.052587   0.0203183   0.619481       0.0562633   0.0265513   0.151244       0.433801       0.0507703
  7118.17       0.200896       0.0785133   0.058055   0.0605585   0.0232917   0.775902       0.110784       0.0289524   0.397996       0.459799       0.0574932
  7119.58       0.335485       0.0945591   0.0735345   0.0812307   0.0331086   0.870936       0.277269       0.0388742   0.67657       0.542639       0.0692354
  7120.99       0.550413       0.149021       0.123809       0.137354       0.0527405   0.919478       0.600754       0.0628285   0.830612       0.638712       0.112782
  7122.39       0.727161       0.28528       0.240134       0.260928       0.111518       0.948781       0.938628       0.120148       0.80608       0.730058       0.230352
  7123.8       0.88629       0.491783       0.427216       0.434633       0.261079       0.965279        1.23895       0.252331       0.801486       0.803728       0.445666
  7125.21        1.02858       0.662236       0.622173       0.615963       0.466806       0.979612        1.50435       0.455749       0.826943       0.871169       0.627782
  7126.62        1.09943       0.868791       0.875265       0.824646       0.656498       0.996491        1.65393       0.672219       0.831334       0.930978       0.85828
  7128.03        1.18454        1.08762        1.10901        1.05661       0.87817        1.01865        1.66071       0.941757       0.859724       0.977896        1.11124
  7129.44        1.30652        1.24826        1.25202        1.25911        1.15097        1.03891        1.47978        1.25018       0.920349        1.0159        1.32671
  7130.85        1.35245        1.34182        1.27708        1.39191        1.39606        1.05188        1.30433        1.46964       0.977349        1.04291        1.40349
  7132.25        1.31391        1.40993        1.26584        1.4565        1.47998        1.06318        1.23986        1.53992        1.04004        1.04486        1.43934
  7133.66        1.2496        1.45699        1.25837        1.45789        1.48844        1.06798        1.15446        1.52071        1.08869        1.02615        1.49697
  7135.07        1.19382        1.41578        1.24211        1.41754        1.4562        1.06834        1.10743        1.48884        1.11947        1.00998        1.45857
  7136.48        1.16128        1.33967        1.2234        1.36848        1.42784        1.06951        1.07981        1.47448        1.14377       0.994386        1.36861
  7137.89        1.13584        1.29147        1.20924        1.32331        1.40519        1.06666        1.06108        1.46388        1.15936       0.988662        1.3116
  7139.3        1.10954        1.25092        1.18306        1.27654        1.37339        1.06402        1.04722        1.44545        1.15665       0.986711        1.25037
  7141.28        1.07622        1.17399        1.13794        1.20602        1.30275        1.05991        1.02716        1.39386        1.15632       0.99645        1.14753
  7144.06        1.07704        1.08672        1.09662        1.13043        1.19005        1.05332       0.976021        1.26727        1.13241       0.992388        1.05922
  7147.15        1.05193        1.0825        1.07492        1.09644        1.10244        1.05003       0.92997        1.15738        1.07421       0.997498        1.05283
  7150.54       0.986996        1.03137        1.00736        1.02834        1.03526        1.04386       0.88261        1.07322        1.03691        1.02452       0.995429
  7154.25       0.950831       0.949193       0.912175       0.933289       0.959018        1.03159       0.861688       0.991499       0.999148        1.0467       0.915027
  7158.26       0.924975       0.889039       0.862728       0.873232       0.848027        1.01318       0.889452       0.886704       0.972896        1.05847       0.849952
  7162.57       0.927907       0.863127       0.857551       0.853669       0.787659       0.991597       0.967248       0.822413       0.918569        1.05525       0.837405
  7167.19       0.950468       0.89033       0.913095       0.888081       0.839317       0.985601        1.04714       0.844229       0.93065        1.02797       0.873881
  7172.12       0.994208       0.950685       0.990469       0.960525       0.954006       0.988544        1.07782       0.937065       0.965156        1.00354       0.956343
  7177.36        1.02782        1.04104        1.05891        1.03844        1.05789       0.993394        1.0726        1.03984       0.98516       0.975809        1.06406
  7182.9        1.05123        1.06708        1.05345        1.06441        1.08653       0.99915        1.05107        1.0855        1.02369       0.964724        1.08486
  7188.75        1.0363        1.06186        1.04573        1.0628        1.07664        1.00857        1.01543        1.0914        1.04252       0.98895        1.07228
  7194.9        1.0062        1.04329        1.03874        1.04937        1.06543        1.00639       0.959946        1.09027        1.07729        1.02574        1.04808
  7199.72       0.97222        1.01767        1.04533        1.03674        1.05835       0.996317       0.943681        1.08197        1.1028        1.02309        1.02189